SpectraSuite数据文件
++++++++++++++++++++++++++++++++++++
数据: Wed Jul 04 08:51:15 CST 2012
用户: Administrator
暗光谱: 否
参考光谱: 否
光谱数量: 1
光谱仪: QEB0822
积分时间（微秒）: 100000 (QEB0822)
平均次数: 1 (QEB0822)
平滑度: 10 (QEB0822)
去除暗噪声: 否 (QEB0822)
使用脉冲信号/灯: 否 (QEB0822)
电子暗噪声校正: 否 (QEB0822)
杂散光校正: 否 (QEB0822)
光谱像素值: 1044
>>>>>Begin Processed Spectral Data<<<<<
199.19	2542.00
199.99	2543.00
200.80	2541.00
201.60	2543.00
202.41	2544.00
203.21	2543.00
204.01	2543.00
204.82	2543.00
205.62	2541.00
206.43	2541.00
207.23	2542.48
208.04	2542.52
208.84	2542.62
209.64	2542.71
210.45	2542.76
211.25	2542.81
212.06	2542.81
212.86	2542.81
213.66	2542.90
214.47	2543.00
215.27	2543.19
216.07	2543.24
216.88	2543.29
217.68	2543.38
218.48	2543.43
219.29	2543.52
220.09	2543.48
220.89	2543.48
221.69	2543.43
222.50	2543.33
223.30	2543.29
224.10	2543.24
224.91	2543.14
225.71	2542.95
226.51	2542.86
227.31	2542.71
228.12	2542.71
228.92	2542.67
229.72	2542.71
230.52	2542.67
231.32	2542.71
232.13	2542.57
232.93	2542.52
233.73	2542.52
234.53	2542.57
235.33	2542.71
236.13	2542.81
236.94	2542.90
237.74	2543.14
238.54	2543.24
239.34	2543.43
240.14	2543.43
240.94	2543.48
241.74	2543.57
242.54	2543.76
243.35	2543.90
244.15	2544.00
244.95	2543.90
245.75	2544.05
246.55	2544.10
247.35	2544.00
248.15	2543.95
248.95	2544.05
249.75	2544.05
250.55	2544.00
251.35	2543.90
252.15	2543.81
252.95	2543.76
253.75	2543.86
254.55	2543.76
255.35	2543.90
256.15	2543.86
256.95	2543.90
257.75	2543.86
258.55	2544.00
259.35	2543.95
260.15	2544.05
260.95	2544.05
261.75	2544.14
262.55	2544.10
263.35	2544.05
264.15	2544.14
264.94	2544.29
265.74	2544.24
266.54	2544.19
267.34	2544.29
268.14	2544.29
268.94	2544.29
269.74	2544.24
270.54	2544.10
271.33	2543.90
272.13	2543.71
272.93	2543.67
273.73	2543.71
274.53	2543.81
275.33	2543.71
276.12	2543.81
276.92	2543.71
277.72	2543.86
278.52	2543.76
279.31	2543.81
280.11	2543.90
280.91	2543.95
281.71	2543.90
282.50	2543.90
283.30	2544.00
284.10	2544.00
284.90	2544.00
285.69	2544.00
286.49	2543.95
287.29	2543.90
288.08	2544.00
288.88	2544.05
289.68	2544.00
290.48	2543.90
291.27	2543.86
292.07	2543.86
292.87	2543.86
293.66	2544.00
294.46	2543.86
295.25	2544.00
296.05	2543.90
296.85	2543.90
297.64	2543.90
298.44	2543.90
299.23	2543.95
300.03	2543.95
300.83	2543.90
301.62	2543.95
302.42	2543.95
303.21	2544.05
304.01	2544.14
304.80	2544.10
305.60	2544.19
306.40	2544.29
307.19	2544.33
307.99	2544.38
308.78	2544.48
309.58	2544.43
310.37	2544.43
311.17	2544.48
311.96	2544.38
312.75	2544.48
313.55	2544.38
314.34	2544.33
315.14	2544.14
315.93	2544.14
316.73	2544.10
317.52	2543.95
318.32	2543.95
319.11	2544.05
319.90	2544.14
320.70	2544.05
321.49	2544.00
322.29	2543.86
323.08	2543.81
323.87	2543.71
324.67	2543.52
325.46	2543.29
326.25	2543.24
327.05	2543.10
327.84	2543.05
328.63	2543.19
329.43	2543.14
330.22	2543.19
331.01	2543.19
331.81	2543.38
332.60	2543.48
333.39	2543.57
334.19	2543.81
334.98	2543.86
335.77	2543.86
336.56	2543.81
337.36	2543.90
338.15	2544.00
338.94	2543.90
339.73	2543.95
340.52	2544.00
341.32	2544.14
342.11	2544.24
342.90	2544.29
343.69	2544.33
344.48	2544.52
345.28	2544.43
346.07	2544.62
346.86	2544.67
347.65	2544.67
348.44	2544.67
349.23	2544.62
350.03	2544.62
350.82	2544.67
351.61	2544.62
352.40	2544.57
353.19	2544.57
353.98	2544.57
354.77	2544.62
355.56	2544.71
356.35	2544.71
357.14	2544.62
357.93	2544.57
358.73	2544.57
359.52	2544.52
360.31	2544.62
361.10	2544.62
361.89	2544.76
362.68	2544.62
363.47	2544.62
364.26	2544.67
365.05	2544.71
365.84	2544.81
366.63	2544.81
367.42	2544.67
368.21	2544.67
369.00	2544.62
369.79	2544.62
370.57	2544.67
371.36	2544.67
372.15	2544.71
372.94	2544.67
373.73	2544.76
374.52	2544.71
375.31	2544.62
376.10	2544.52
376.89	2544.38
377.68	2544.29
378.47	2544.14
379.25	2544.19
380.04	2544.10
380.83	2544.10
381.62	2544.05
382.41	2543.95
383.20	2543.95
383.98	2544.00
384.77	2544.00
385.56	2544.14
386.35	2544.14
387.14	2544.24
387.92	2544.24
388.71	2544.29
389.50	2544.33
390.29	2544.38
391.08	2544.43
391.86	2544.57
392.65	2544.67
393.44	2544.57
394.22	2544.43
395.01	2544.38
395.80	2544.19
396.59	2544.19
397.37	2544.14
398.16	2544.10
398.95	2544.10
399.73	2544.00
400.52	2543.90
401.31	2543.90
402.09	2543.95
402.88	2544.00
403.67	2543.95
404.45	2544.00
405.24	2544.00
406.03	2544.10
406.81	2544.14
407.60	2544.19
408.38	2544.14
409.17	2544.14
409.96	2544.19
410.74	2544.24
411.53	2544.29
412.31	2544.43
413.10	2544.48
413.88	2544.43
414.67	2544.33
415.45	2544.29
416.24	2544.24
417.02	2544.19
417.81	2544.19
418.59	2544.14
419.38	2544.10
420.16	2544.19
420.95	2544.33
421.73	2544.38
422.52	2544.38
423.30	2544.43
424.09	2544.48
424.87	2544.71
425.66	2544.76
426.44	2544.95
427.22	2544.86
428.01	2544.71
428.79	2544.67
429.58	2544.67
430.36	2544.62
431.14	2544.67
431.93	2544.57
432.71	2544.62
433.50	2544.71
434.28	2544.76
435.06	2544.62
435.85	2544.57
436.63	2544.38
437.41	2544.14
438.20	2543.95
438.98	2543.95
439.76	2543.90
440.55	2543.86
441.33	2543.67
442.11	2543.67
442.89	2543.48
443.68	2543.71
444.46	2543.86
445.24	2543.86
446.02	2543.76
446.81	2543.95
447.59	2544.00
448.37	2544.24
449.15	2544.43
449.94	2544.48
450.72	2544.43
451.50	2544.52
452.28	2544.57
453.06	2544.67
453.84	2544.67
454.63	2544.67
455.41	2544.62
456.19	2544.62
456.97	2544.62
457.75	2544.48
458.53	2544.43
459.32	2544.38
460.10	2544.33
460.88	2544.29
461.66	2544.29
462.44	2544.48
463.22	2544.43
464.00	2544.48
464.78	2544.38
465.56	2544.29
466.34	2544.29
467.12	2544.43
467.90	2544.38
468.68	2544.38
469.46	2544.33
470.24	2544.43
471.02	2544.52
471.80	2544.48
472.58	2544.38
473.36	2544.38
474.14	2544.48
474.92	2544.33
475.70	2544.38
476.48	2544.29
477.26	2544.24
478.04	2544.14
478.82	2543.90
479.60	2543.81
480.38	2543.81
481.16	2543.81
481.94	2543.76
482.72	2543.81
483.50	2543.71
484.28	2543.76
485.05	2543.76
485.83	2543.86
486.61	2543.76
487.39	2543.90
488.17	2543.86
488.95	2543.90
489.73	2543.86
490.50	2543.90
491.28	2544.10
492.06	2544.14
492.84	2544.19
493.62	2544.24
494.39	2544.38
495.17	2544.52
495.95	2544.62
496.73	2544.48
497.51	2544.43
498.28	2544.38
499.06	2544.29
499.84	2544.24
500.62	2544.19
501.39	2544.05
502.17	2543.90
502.95	2543.95
503.72	2543.71
504.50	2543.76
505.28	2543.90
506.05	2544.00
506.83	2544.05
507.61	2544.10
508.38	2544.14
509.16	2544.19
509.94	2544.29
510.71	2544.29
511.49	2544.29
512.27	2544.33
513.04	2544.52
513.82	2544.52
514.59	2544.52
515.37	2544.48
516.15	2544.48
516.92	2544.43
517.70	2544.48
518.47	2544.43
519.25	2544.29
520.02	2544.38
520.80	2544.38
521.58	2544.14
522.35	2544.14
523.13	2544.10
523.90	2544.10
524.68	2544.10
525.45	2544.14
526.23	2544.10
527.00	2544.10
527.78	2544.19
528.55	2544.14
529.33	2544.10
530.10	2544.14
530.87	2544.24
531.65	2544.24
532.42	2544.24
533.20	2544.33
533.97	2544.38
534.75	2544.43
535.52	2544.62
536.29	2544.57
537.07	2544.57
537.84	2544.62
538.61	2544.52
539.39	2544.57
540.16	2544.52
540.94	2544.57
541.71	2544.52
542.48	2544.57
543.26	2544.57
544.03	2544.52
544.80	2544.57
545.57	2544.57
546.35	2544.52
547.12	2544.48
547.89	2544.57
548.67	2544.52
549.44	2544.43
550.21	2544.33
550.98	2544.29
551.76	2544.24
552.53	2544.19
553.30	2544.19
554.07	2544.24
554.85	2544.38
555.62	2544.33
556.39	2544.43
557.16	2544.48
557.93	2544.43
558.71	2544.29
559.48	2544.24
560.25	2544.14
561.02	2544.00
561.79	2543.95
562.56	2543.90
563.34	2543.90
564.11	2543.86
564.88	2543.86
565.65	2543.90
566.42	2543.95
567.19	2544.00
567.96	2544.00
568.73	2544.05
569.50	2544.05
570.27	2544.10
571.04	2544.10
571.82	2544.05
572.59	2543.95
573.36	2543.90
574.13	2543.95
574.90	2544.10
575.67	2544.14
576.44	2544.24
577.21	2544.43
577.98	2544.57
578.75	2544.67
579.52	2544.71
580.29	2544.71
581.06	2544.76
581.83	2544.71
582.60	2544.81
583.36	2544.81
584.13	2544.71
584.90	2544.71
585.67	2544.71
586.44	2544.67
587.21	2544.57
587.98	2544.67
588.75	2544.71
589.52	2544.71
590.29	2544.71
591.05	2544.67
591.82	2544.62
592.59	2544.48
593.36	2544.29
594.13	2544.10
594.90	2544.05
595.67	2543.95
596.43	2543.95
597.20	2543.90
597.97	2543.86
598.74	2543.76
599.51	2543.76
600.27	2543.90
601.04	2543.95
601.81	2543.95
602.58	2543.95
603.34	2543.95
604.11	2543.86
604.88	2543.81
605.65	2543.86
606.41	2543.81
607.18	2543.71
607.95	2543.71
608.71	2543.76
609.48	2543.90
610.25	2543.90
611.01	2543.95
611.78	2543.90
612.55	2543.76
613.31	2543.81
614.08	2543.76
614.85	2543.95
615.61	2543.95
616.38	2543.90
617.15	2543.86
617.91	2543.95
618.68	2544.00
619.44	2544.14
620.21	2544.29
620.98	2544.33
621.74	2544.29
622.51	2544.33
623.27	2544.48
624.04	2544.57
624.80	2544.62
625.57	2544.62
626.33	2544.67
627.10	2544.57
627.86	2544.62
628.63	2544.76
629.39	2544.76
630.16	2544.95
630.92	2544.81
631.69	2544.90
632.45	2544.95
633.22	2545.10
633.98	2545.05
634.75	2545.05
635.51	2545.05
636.28	2544.95
637.04	2544.86
637.80	2544.81
638.57	2544.81
639.33	2544.76
640.10	2544.52
640.86	2544.48
641.62	2544.33
642.39	2544.19
643.15	2544.14
643.91	2544.14
644.68	2544.10
645.44	2544.14
646.20	2544.14
646.97	2544.19
647.73	2544.14
648.49	2544.05
649.26	2544.14
650.02	2544.14
650.78	2544.10
651.55	2543.95
652.31	2543.95
653.07	2544.10
653.83	2544.10
654.60	2544.14
655.36	2544.19
656.12	2544.48
656.88	2544.52
657.65	2544.71
658.41	2544.90
659.17	2545.05
659.93	2545.14
660.69	2545.10
661.46	2544.90
662.22	2544.71
662.98	2544.57
663.74	2544.48
664.50	2544.38
665.26	2544.29
666.03	2544.14
666.79	2544.19
667.55	2544.29
668.31	2544.43
669.07	2544.33
669.83	2544.33
670.59	2544.29
671.35	2544.29
672.11	2544.19
672.87	2544.19
673.63	2544.10
674.40	2544.05
675.16	2544.05
675.92	2544.00
676.68	2544.10
677.44	2544.29
678.20	2544.52
678.96	2544.67
679.72	2544.71
680.48	2544.81
681.24	2544.67
682.00	2544.76
682.76	2544.62
683.52	2544.48
684.28	2544.33
685.04	2544.19
685.79	2544.05
686.55	2544.05
687.31	2543.95
688.07	2543.95
688.83	2544.00
689.59	2544.05
690.35	2544.10
691.11	2544.14
691.87	2544.14
692.63	2544.14
693.38	2544.19
694.14	2544.10
694.90	2544.10
695.66	2544.14
696.42	2544.29
697.18	2544.29
697.94	2544.33
698.69	2544.48
699.45	2544.52
700.21	2544.52
700.97	2544.57
701.73	2544.71
702.48	2544.71
703.24	2544.71
704.00	2544.67
704.76	2544.52
705.51	2544.43
706.27	2544.38
707.03	2544.24
707.79	2544.33
708.54	2544.33
709.30	2544.24
710.06	2544.24
710.81	2544.19
711.57	2544.24
712.33	2544.29
713.08	2544.43
713.84	2544.48
714.60	2544.52
715.35	2544.62
716.11	2544.67
716.87	2544.81
717.62	2544.90
718.38	2544.81
719.14	2544.76
719.89	2544.86
720.65	2544.95
721.40	2544.86
722.16	2544.76
722.91	2544.86
723.67	2544.86
724.43	2544.90
725.18	2544.95
725.94	2544.81
726.69	2544.76
727.45	2544.71
728.20	2544.52
728.96	2544.43
729.71	2544.29
730.47	2544.24
731.22	2544.24
731.98	2544.19
732.73	2544.19
733.49	2544.00
734.24	2544.10
735.00	2544.19
735.75	2544.19
736.51	2544.24
737.26	2544.33
738.01	2544.48
738.77	2544.38
739.52	2544.38
740.28	2544.38
741.03	2544.38
741.78	2544.52
742.54	2544.57
743.29	2544.52
744.04	2544.52
744.80	2544.43
745.55	2544.57
746.31	2544.48
747.06	2544.33
747.81	2544.29
748.57	2544.14
749.32	2544.24
750.07	2544.19
750.82	2544.19
751.58	2544.14
752.33	2544.10
753.08	2544.19
753.84	2544.24
754.59	2544.24
755.34	2544.24
756.09	2544.33
756.84	2544.38
757.60	2544.38
758.35	2544.43
759.10	2544.52
759.85	2544.52
760.61	2544.67
761.36	2544.52
762.11	2544.67
762.86	2544.81
763.61	2544.86
764.36	2544.90
765.12	2544.81
765.87	2544.81
766.62	2544.62
767.37	2544.48
768.12	2544.43
768.87	2544.24
769.62	2544.14
770.37	2544.19
771.13	2544.14
771.88	2544.05
772.63	2543.90
773.38	2543.95
774.13	2544.05
774.88	2544.10
775.63	2544.24
776.38	2544.33
777.13	2544.38
777.88	2544.24
778.63	2544.10
779.38	2544.10
780.13	2544.19
780.88	2544.29
781.63	2544.14
782.38	2544.14
783.13	2544.14
783.88	2544.10
784.63	2544.05
785.38	2544.10
786.13	2544.14
786.88	2544.05
787.63	2544.05
788.37	2544.24
789.12	2544.14
789.87	2544.10
790.62	2544.10
791.37	2544.00
792.12	2543.95
792.87	2543.95
793.62	2544.05
794.37	2544.24
795.11	2544.19
795.86	2544.14
796.61	2544.00
797.36	2544.14
798.11	2544.24
798.85	2544.33
799.60	2544.43
800.35	2544.62
801.10	2544.67
801.85	2544.71
802.59	2544.90
803.34	2544.95
804.09	2544.81
804.84	2544.86
805.58	2544.81
806.33	2544.76
807.08	2544.86
807.83	2544.90
808.57	2544.95
809.32	2544.95
810.07	2544.81
810.81	2544.86
811.56	2544.76
812.31	2544.86
813.05	2544.81
813.80	2544.81
814.55	2544.76
815.29	2544.76
816.04	2544.76
816.79	2544.71
817.53	2544.57
818.28	2544.48
819.02	2544.29
819.77	2544.43
820.52	2544.48
821.26	2544.48
822.01	2544.52
822.75	2544.43
823.50	2544.33
824.24	2544.48
824.99	2544.52
825.74	2544.57
826.48	2544.57
827.23	2544.62
827.97	2544.62
828.72	2544.67
829.46	2544.71
830.21	2544.81
830.95	2544.71
831.70	2544.57
832.44	2544.48
833.18	2544.48
833.93	2544.43
834.67	2544.57
835.42	2544.38
836.16	2544.43
836.91	2544.43
837.65	2544.33
838.39	2544.33
839.14	2544.29
839.88	2544.14
840.63	2544.14
841.37	2544.05
842.11	2544.05
842.86	2544.00
843.60	2544.05
844.34	2544.00
845.09	2543.90
845.83	2543.81
846.57	2543.81
847.32	2543.86
848.06	2543.90
848.80	2543.95
849.55	2543.95
850.29	2544.00
851.03	2544.19
851.77	2544.19
852.52	2544.19
853.26	2544.33
854.00	2544.48
854.74	2544.52
855.49	2544.43
856.23	2544.33
856.97	2544.38
857.71	2544.48
858.46	2544.48
859.20	2544.43
859.94	2544.43
860.68	2544.43
861.42	2544.48
862.16	2544.57
862.91	2544.71
863.65	2544.67
864.39	2544.62
865.13	2544.71
865.87	2544.52
866.61	2544.52
867.35	2544.57
868.09	2544.57
868.83	2544.43
869.58	2544.38
870.32	2544.33
871.06	2544.43
871.80	2544.38
872.54	2544.43
873.28	2544.29
874.02	2544.29
874.76	2544.38
875.50	2544.33
876.24	2544.33
876.98	2544.24
877.72	2544.14
878.46	2544.00
879.20	2544.00
879.94	2544.14
880.68	2544.14
881.42	2544.29
882.16	2544.14
882.90	2544.14
883.64	2544.19
884.38	2544.29
885.12	2544.19
885.85	2544.29
886.59	2544.43
887.33	2544.52
888.07	2544.52
888.81	2544.62
889.55	2544.71
890.29	2544.62
891.03	2544.71
891.76	2544.81
892.50	2544.90
893.24	2544.86
893.98	2544.86
894.72	2545.00
895.46	2544.95
896.19	2544.81
896.93	2544.76
897.67	2544.71
898.41	2544.71
899.15	2544.67
899.88	2544.71
900.62	2544.76
901.36	2544.76
902.10	2544.62
902.83	2544.67
903.57	2544.67
904.31	2544.67
905.05	2544.67
905.78	2544.71
906.52	2544.76
907.26	2544.71
907.99	2544.86
908.73	2544.86
909.47	2544.76
910.20	2544.62
910.94	2544.43
911.68	2544.43
912.41	2544.38
913.15	2544.38
913.88	2544.14
914.62	2544.14
915.36	2544.00
916.09	2544.05
916.83	2544.00
917.56	2544.00
918.30	2543.95
919.04	2544.05
919.77	2544.10
920.51	2544.10
921.24	2544.14
921.98	2544.14
922.71	2544.24
923.45	2544.14
924.18	2544.38
924.92	2544.57
925.65	2544.62
926.39	2544.81
927.12	2544.90
927.86	2545.00
928.59	2545.00
929.33	2545.10
930.06	2545.10
930.80	2545.00
931.53	2544.86
932.27	2544.86
933.00	2544.76
933.73	2544.67
934.47	2544.43
935.20	2544.24
935.94	2544.24
936.67	2544.14
937.40	2544.00
938.14	2544.05
938.87	2544.10
939.60	2544.10
940.34	2544.19
941.07	2544.33
941.80	2544.29
942.54	2544.33
943.27	2544.38
944.00	2544.57
944.74	2544.67
945.47	2544.67
946.20	2544.81
946.93	2544.86
947.67	2544.90
948.40	2544.95
949.13	2545.05
949.86	2545.19
950.60	2545.24
951.33	2545.19
952.06	2545.14
952.79	2545.19
953.53	2545.10
954.26	2545.00
954.99	2544.81
955.72	2544.62
956.45	2544.38
957.18	2544.43
957.92	2544.29
958.65	2544.14
959.38	2544.00
960.11	2543.95
960.84	2543.95
961.57	2543.95
962.30	2544.00
963.04	2544.00
963.77	2544.05
964.50	2544.00
965.23	2544.00
965.96	2544.14
966.69	2544.19
967.42	2544.33
968.15	2544.48
968.88	2544.52
969.61	2544.57
970.34	2544.57
971.07	2544.67
971.80	2544.86
972.53	2544.86
973.26	2545.00
973.99	2545.00
974.72	2544.95
975.45	2544.90
976.18	2544.86
976.91	2544.86
977.64	2544.81
978.37	2544.86
979.10	2544.86
979.83	2544.86
980.56	2544.81
981.29	2544.62
982.01	2544.48
982.74	2544.38
983.47	2544.24
984.20	2544.14
984.93	2544.05
985.66	2544.10
986.39	2544.00
987.12	2543.86
987.84	2543.95
988.57	2543.86
989.30	2544.00
990.03	2544.00
990.76	2543.95
991.49	2543.90
992.21	2543.00
992.94	2544.00
993.67	2543.00
994.40	2543.00
995.12	2547.00
995.85	2544.00
996.58	2546.00
997.31	2543.00
998.03	2543.00
998.76	2543.00
>>>>>End Processed Spectral Data<<<<<
