SpectraSuite数据文件
++++++++++++++++++++++++++++++++++++
数据: Wed Jul 04 09:08:30 CST 2012
用户: Administrator
暗光谱: 否
参考光谱: 否
光谱数量: 1
光谱仪: QEB0822
积分时间（微秒）: 100000 (QEB0822)
平均次数: 1 (QEB0822)
平滑度: 10 (QEB0822)
去除暗噪声: 否 (QEB0822)
使用脉冲信号/灯: 否 (QEB0822)
电子暗噪声校正: 否 (QEB0822)
杂散光校正: 否 (QEB0822)
光谱像素值: 1044
>>>>>Begin Processed Spectral Data<<<<<
199.19	2548.00
199.99	2550.00
200.80	2550.00
201.60	2550.00
202.41	2548.00
203.21	2548.00
204.01	2550.00
204.82	2548.00
205.62	2548.00
206.43	2549.00
207.23	2549.24
208.04	2549.38
208.84	2549.29
209.64	2549.14
210.45	2549.10
211.25	2549.00
212.06	2548.95
212.86	2548.90
213.66	2548.90
214.47	2548.95
215.27	2548.86
216.07	2548.86
216.88	2548.86
217.68	2548.81
218.48	2548.76
219.29	2548.71
220.09	2548.62
220.89	2548.67
221.69	2548.71
222.50	2548.76
223.30	2548.71
224.10	2548.71
224.91	2548.71
225.71	2548.90
226.51	2549.10
227.31	2549.19
228.12	2549.43
228.92	2549.48
229.72	2549.38
230.52	2549.29
231.32	2549.24
232.13	2549.29
232.93	2549.29
233.73	2549.24
234.53	2549.38
235.33	2549.62
236.13	2549.62
236.94	2549.71
237.74	2549.67
238.54	2549.67
239.34	2549.62
240.14	2549.67
240.94	2549.67
241.74	2549.67
242.54	2549.62
243.35	2549.52
244.15	2549.48
244.95	2549.38
245.75	2549.57
246.55	2549.76
247.35	2550.05
248.15	2550.14
248.95	2550.38
249.75	2550.62
250.55	2550.76
251.35	2550.86
252.15	2550.71
252.95	2550.71
253.75	2550.67
254.55	2550.67
255.35	2550.57
256.15	2550.57
256.95	2550.48
257.75	2550.38
258.55	2550.43
259.35	2550.43
260.15	2550.48
260.95	2550.52
261.75	2550.62
262.55	2550.67
263.35	2550.71
264.15	2550.71
264.94	2550.71
265.74	2550.62
266.54	2550.48
267.34	2550.43
268.14	2550.29
268.94	2550.29
269.74	2550.33
270.54	2550.29
271.33	2550.29
272.13	2550.33
272.93	2550.43
273.73	2550.57
274.53	2550.67
275.33	2550.62
276.12	2550.67
276.92	2550.81
277.72	2550.90
278.52	2550.86
279.31	2550.67
280.11	2550.57
280.91	2550.52
281.71	2550.48
282.50	2550.33
283.30	2550.29
284.10	2550.29
284.90	2550.38
285.69	2550.43
286.49	2550.38
287.29	2550.48
288.08	2550.57
288.88	2550.62
289.68	2550.52
290.48	2550.52
291.27	2550.57
292.07	2550.71
292.87	2550.76
293.66	2550.71
294.46	2550.62
295.25	2550.62
296.05	2550.71
296.85	2550.76
297.64	2550.76
298.44	2550.90
299.23	2551.00
300.03	2551.00
300.83	2551.00
301.62	2550.90
302.42	2550.90
303.21	2551.00
304.01	2551.10
304.80	2551.05
305.60	2551.14
306.40	2551.29
307.19	2551.33
307.99	2551.33
308.78	2551.24
309.58	2551.14
310.37	2551.10
311.17	2551.10
311.96	2551.10
312.75	2550.95
313.55	2550.86
314.34	2550.76
315.14	2550.76
315.93	2550.71
316.73	2550.71
317.52	2550.76
318.32	2550.86
319.11	2551.00
319.90	2551.00
320.70	2551.00
321.49	2551.14
322.29	2551.10
323.08	2551.14
323.87	2551.05
324.67	2551.10
325.46	2550.95
326.25	2551.05
327.05	2551.10
327.84	2551.05
328.63	2551.24
329.43	2551.19
330.22	2551.29
331.01	2551.38
331.81	2551.29
332.60	2551.33
333.39	2551.43
334.19	2551.57
334.98	2551.62
335.77	2551.52
336.56	2551.52
337.36	2551.57
338.15	2551.48
338.94	2551.57
339.73	2551.52
340.52	2551.67
341.32	2551.71
342.11	2551.81
342.90	2551.81
343.69	2551.90
344.48	2551.90
345.28	2551.81
346.07	2552.05
346.86	2552.05
347.65	2552.00
348.44	2552.00
349.23	2552.14
350.03	2552.14
350.82	2552.19
351.61	2552.24
352.40	2552.38
353.19	2552.48
353.98	2552.48
354.77	2552.62
355.56	2552.48
356.35	2552.52
357.14	2552.57
357.93	2552.62
358.73	2552.67
359.52	2552.81
360.31	2552.86
361.10	2553.10
361.89	2553.19
362.68	2553.33
363.47	2553.52
364.26	2553.81
365.05	2554.05
365.84	2554.24
366.63	2554.52
367.42	2554.67
368.21	2554.90
369.00	2555.19
369.79	2555.43
370.57	2555.67
371.36	2555.90
372.15	2556.38
372.94	2556.76
373.73	2557.19
374.52	2557.76
375.31	2558.33
376.10	2558.86
376.89	2559.67
377.68	2560.90
378.47	2562.48
379.25	2564.71
380.04	2567.43
380.83	2570.76
381.62	2574.95
382.41	2579.57
383.20	2584.81
383.98	2590.52
384.77	2596.90
385.56	2603.71
386.35	2611.38
387.14	2619.33
387.92	2627.81
388.71	2636.90
389.50	2647.00
390.29	2657.24
391.08	2668.00
391.86	2679.52
392.65	2691.95
393.44	2704.81
394.22	2717.67
395.01	2731.19
395.80	2744.57
396.59	2758.43
397.37	2773.00
398.16	2787.38
398.95	2801.86
399.73	2816.76
400.52	2832.10
401.31	2847.67
402.09	2863.57
402.88	2879.90
403.67	2896.81
404.45	2913.86
405.24	2931.29
406.03	2948.71
406.81	2967.71
407.60	2986.90
408.38	3006.33
409.17	3025.52
409.96	3045.67
410.74	3066.81
411.53	3087.57
412.31	3109.00
413.10	3131.10
413.88	3153.14
414.67	3175.95
415.45	3199.29
416.24	3223.10
417.02	3246.95
417.81	3271.33
418.59	3296.05
419.38	3321.05
420.16	3346.29
420.95	3372.90
421.73	3400.43
422.52	3427.81
423.30	3455.48
424.09	3483.86
424.87	3513.29
425.66	3542.76
426.44	3571.71
427.22	3602.05
428.01	3633.14
428.79	3665.48
429.58	3697.57
430.36	3729.52
431.14	3762.81
431.93	3797.43
432.71	3831.62
433.50	3867.24
434.28	3904.33
435.06	3941.62
435.85	3979.10
436.63	4017.52
437.41	4056.10
438.20	4094.90
438.98	4134.81
439.76	4174.19
440.55	4214.76
441.33	4255.10
442.11	4297.14
442.89	4341.33
443.68	4384.43
444.46	4428.76
445.24	4472.90
446.02	4517.86
446.81	4564.38
447.59	4609.90
448.37	4655.62
449.15	4702.86
449.94	4750.19
450.72	4797.29
451.50	4845.52
452.28	4894.43
453.06	4944.52
453.84	4994.14
454.63	5044.52
455.41	5095.81
456.19	5148.76
456.97	5201.57
457.75	5256.95
458.53	5311.95
459.32	5365.52
460.10	5421.14
460.88	5476.38
461.66	5531.95
462.44	5589.00
463.22	5646.10
464.00	5705.10
464.78	5763.05
465.56	5822.76
466.34	5881.24
467.12	5941.00
467.90	6001.43
468.68	6062.90
469.46	6124.05
470.24	6186.67
471.02	6249.95
471.80	6312.10
472.58	6373.81
473.36	6437.19
474.14	6500.43
474.92	6563.86
475.70	6629.90
476.48	6694.81
477.26	6759.90
478.04	6826.05
478.82	6891.81
479.60	6955.86
480.38	7020.14
481.16	7087.00
481.94	7151.48
482.72	7217.29
483.50	7281.86
484.28	7346.33
485.05	7410.43
485.83	7474.52
486.61	7537.67
487.39	7599.95
488.17	7661.33
488.95	7722.38
489.73	7782.86
490.50	7841.43
491.28	7900.29
492.06	7956.24
492.84	8012.67
493.62	8068.71
494.39	8123.14
495.17	8176.29
495.95	8232.52
496.73	8286.76
497.51	8338.62
498.28	8391.29
499.06	8443.29
499.84	8497.24
500.62	8547.00
501.39	8595.24
502.17	8644.52
502.95	8692.62
503.72	8740.10
504.50	8788.24
505.28	8835.05
506.05	8880.33
506.83	8923.81
507.61	8965.24
508.38	9008.00
509.16	9048.33
509.94	9088.52
510.71	9126.14
511.49	9162.81
512.27	9197.14
513.04	9229.76
513.82	9261.29
514.59	9292.62
515.37	9321.33
516.15	9346.10
516.92	9373.76
517.70	9398.81
518.47	9422.43
519.25	9444.90
520.02	9465.00
520.80	9483.95
521.58	9504.24
522.35	9521.90
523.13	9540.57
523.90	9559.62
524.68	9574.62
525.45	9589.95
526.23	9602.14
527.00	9615.19
527.78	9627.76
528.55	9639.10
529.33	9651.14
530.10	9663.52
530.87	9671.81
531.65	9681.00
532.42	9688.62
533.20	9694.24
533.97	9703.19
534.75	9708.86
535.52	9714.29
536.29	9721.48
537.07	9729.86
537.84	9735.33
538.61	9742.86
539.39	9747.67
540.16	9752.29
540.94	9759.00
541.71	9765.19
542.48	9771.57
543.26	9779.24
544.03	9787.43
544.80	9797.38
545.57	9803.33
546.35	9811.76
547.12	9822.33
547.89	9834.48
548.67	9848.67
549.44	9863.05
550.21	9876.81
550.98	9892.67
551.76	9909.05
552.53	9924.86
553.30	9942.38
554.07	9960.57
554.85	9980.43
555.62	10000.67
556.39	10020.00
557.16	10041.90
557.93	10062.48
558.71	10084.67
559.48	10109.29
560.25	10134.76
561.02	10158.38
561.79	10188.19
562.56	10217.10
563.34	10246.43
564.11	10275.71
564.88	10306.10
565.65	10339.62
566.42	10375.62
567.19	10411.00
567.96	10449.52
568.73	10491.05
569.50	10530.38
570.27	10569.19
571.04	10609.57
571.82	10653.67
572.59	10700.05
573.36	10748.33
574.13	10798.57
574.90	10851.76
575.67	10904.38
576.44	10956.05
577.21	11010.43
577.98	11064.76
578.75	11118.95
579.52	11175.29
580.29	11230.90
581.06	11288.86
581.83	11347.00
582.60	11403.95
583.36	11466.19
584.13	11526.05
584.90	11585.67
585.67	11648.14
586.44	11717.57
587.21	11783.00
587.98	11847.57
588.75	11917.81
589.52	11987.62
590.29	12058.38
591.05	12129.52
591.82	12201.05
592.59	12280.38
593.36	12360.48
594.13	12441.10
594.90	12522.67
595.67	12608.05
596.43	12694.48
597.20	12778.57
597.97	12865.52
598.74	12956.57
599.51	13047.52
600.27	13140.24
601.04	13236.00
601.81	13333.52
602.58	13428.67
603.34	13529.52
604.11	13628.14
604.88	13723.24
605.65	13817.62
606.41	13915.81
607.18	14014.95
607.95	14115.33
608.71	14209.86
609.48	14307.62
610.25	14405.71
611.01	14505.52
611.78	14604.29
612.55	14702.43
613.31	14805.29
614.08	14901.48
614.85	14998.10
615.61	15091.00
616.38	15186.76
617.15	15280.81
617.91	15368.38
618.68	15455.14
619.44	15543.43
620.21	15636.95
620.98	15728.86
621.74	15822.95
622.51	15915.62
623.27	16009.33
624.04	16104.05
624.80	16198.76
625.57	16290.10
626.33	16385.57
627.10	16479.76
627.86	16574.95
628.63	16675.81
629.39	16775.19
630.16	16880.10
630.92	16980.90
631.69	17087.29
632.45	17191.29
633.22	17295.33
633.98	17402.43
634.75	17512.81
635.51	17619.57
636.28	17723.52
637.04	17829.52
637.80	17932.00
638.57	18033.48
639.33	18134.05
640.10	18236.14
640.86	18333.76
641.62	18429.71
642.39	18518.43
643.15	18608.43
643.91	18690.62
644.68	18770.57
645.44	18849.33
646.20	18929.90
646.97	19016.48
647.73	19097.76
648.49	19178.05
649.26	19259.81
650.02	19340.67
650.78	19418.81
651.55	19498.19
652.31	19577.57
653.07	19662.81
653.83	19749.48
654.60	19834.71
655.36	19916.00
656.12	19990.67
656.88	20066.43
657.65	20147.67
658.41	20228.10
659.17	20304.71
659.93	20389.86
660.69	20473.33
661.46	20556.48
662.22	20635.10
662.98	20705.95
663.74	20777.86
664.50	20853.14
665.26	20920.67
666.03	20990.81
666.79	21057.38
667.55	21116.10
668.31	21183.00
669.07	21237.05
669.83	21288.43
670.59	21340.00
671.35	21391.33
672.11	21444.86
672.87	21500.33
673.63	21550.76
674.40	21603.48
675.16	21656.29
675.92	21709.24
676.68	21759.71
677.44	21808.24
678.20	21853.90
678.96	21897.05
679.72	21936.19
680.48	21972.19
681.24	22011.33
682.00	22054.14
682.76	22103.76
683.52	22154.62
684.28	22187.57
685.04	22222.19
685.79	22260.86
686.55	22301.05
687.31	22340.05
688.07	22370.38
688.83	22392.19
689.59	22417.62
690.35	22442.67
691.11	22464.00
691.87	22474.57
692.63	22489.90
693.38	22510.57
694.14	22524.48
694.90	22537.05
695.66	22553.19
696.42	22572.10
697.18	22595.24
697.94	22608.05
698.69	22608.57
699.45	22605.71
700.21	22605.14
700.97	22600.14
701.73	22584.86
702.48	22575.14
703.24	22568.43
704.00	22568.10
704.76	22570.57
705.51	22562.33
706.27	22548.14
707.03	22538.81
707.79	22533.33
708.54	22516.10
709.30	22491.29
710.06	22480.33
710.81	22465.90
711.57	22447.38
712.33	22419.81
713.08	22379.48
713.84	22337.86
714.60	22305.90
715.35	22288.24
716.11	22272.14
716.87	22246.67
717.62	22225.00
718.38	22197.86
719.14	22163.00
719.89	22120.19
720.65	22072.14
721.40	22032.14
722.16	21996.05
722.91	21957.05
723.67	21912.81
724.43	21869.00
725.18	21817.43
725.94	21759.71
726.69	21710.43
727.45	21657.52
728.20	21602.19
728.96	21548.33
729.71	21500.14
730.47	21453.00
731.22	21391.33
731.98	21327.38
732.73	21275.95
733.49	21217.33
734.24	21157.81
735.00	21100.43
735.75	21049.48
736.51	21012.57
737.26	20971.81
738.01	20923.24
738.77	20870.57
739.52	20818.00
740.28	20763.24
741.03	20721.86
741.78	20677.33
742.54	20622.67
743.29	20570.43
744.04	20520.57
744.80	20474.10
745.55	20415.81
746.31	20348.00
747.06	20283.10
747.81	20216.62
748.57	20149.00
749.32	20091.62
750.07	20029.81
750.82	19968.29
751.58	19907.90
752.33	19840.24
753.08	19774.48
753.84	19716.24
754.59	19658.57
755.34	19593.90
756.09	19533.57
756.84	19464.62
757.60	19396.29
758.35	19335.57
759.10	19270.00
759.85	19203.81
760.61	19140.00
761.36	19078.76
762.11	19014.81
762.86	18950.52
763.61	18888.33
764.36	18820.38
765.12	18749.14
765.87	18679.43
766.62	18608.95
767.37	18529.00
768.12	18441.48
768.87	18348.19
769.62	18253.57
770.37	18159.19
771.13	18076.48
771.88	17988.86
772.63	17901.86
773.38	17813.48
774.13	17723.86
774.88	17640.86
775.63	17557.10
776.38	17461.95
777.13	17363.00
777.88	17266.86
778.63	17174.76
779.38	17084.52
780.13	16993.81
780.88	16898.71
781.63	16806.33
782.38	16712.71
783.13	16623.10
783.88	16537.24
784.63	16446.71
785.38	16354.57
786.13	16266.00
786.88	16177.19
787.63	16095.48
788.37	16009.14
789.12	15916.86
789.87	15816.10
790.62	15712.14
791.37	15611.14
792.12	15520.24
792.87	15428.00
793.62	15333.90
794.37	15232.90
795.11	15134.76
795.86	15042.86
796.61	14953.71
797.36	14856.00
798.11	14757.52
798.85	14655.81
799.60	14559.24
800.35	14471.43
801.10	14384.05
801.85	14287.76
802.59	14185.43
803.34	14082.81
804.09	13988.29
804.84	13900.71
805.58	13813.67
806.33	13719.57
807.08	13622.48
807.83	13521.48
808.57	13434.95
809.32	13351.24
810.07	13269.14
810.81	13184.00
811.56	13095.67
812.31	13003.86
813.05	12915.67
813.80	12832.48
814.55	12756.95
815.29	12675.71
816.04	12590.48
816.79	12502.05
817.53	12419.38
818.28	12343.48
819.02	12263.29
819.77	12178.71
820.52	12090.86
821.26	12003.14
822.01	11922.95
822.75	11847.14
823.50	11778.71
824.24	11706.57
824.99	11637.24
825.74	11558.33
826.48	11477.10
827.23	11397.62
827.97	11319.57
828.72	11252.52
829.46	11187.57
830.21	11115.05
830.95	11039.62
831.70	10962.81
832.44	10890.10
833.18	10820.76
833.93	10747.19
834.67	10674.95
835.42	10600.00
836.16	10525.67
836.91	10457.90
837.65	10389.19
838.39	10322.90
839.14	10254.95
839.88	10184.71
840.63	10110.57
841.37	10044.48
842.11	9980.38
842.86	9920.76
843.60	9864.57
844.34	9798.38
845.09	9722.48
845.83	9647.38
846.57	9576.57
847.32	9509.67
848.06	9444.29
848.80	9376.14
849.55	9308.52
850.29	9244.48
851.03	9179.48
851.77	9110.62
852.52	9041.14
853.26	8976.05
854.00	8908.62
854.74	8838.14
855.49	8767.71
856.23	8696.05
856.97	8621.43
857.71	8549.33
858.46	8472.05
859.20	8396.05
859.94	8322.67
860.68	8249.48
861.42	8176.57
862.16	8101.95
862.91	8025.48
863.65	7946.10
864.39	7867.52
865.13	7789.29
865.87	7706.29
866.61	7624.90
867.35	7544.86
868.09	7462.33
868.83	7376.76
869.58	7289.29
870.32	7200.81
871.06	7113.52
871.80	7026.52
872.54	6938.05
873.28	6845.76
874.02	6752.24
874.76	6655.81
875.50	6556.00
876.24	6458.62
876.98	6362.71
877.72	6267.05
878.46	6167.38
879.20	6065.24
879.94	5959.86
880.68	5853.62
881.42	5747.33
882.16	5642.43
882.90	5539.67
883.64	5436.43
884.38	5330.19
885.12	5221.29
885.85	5109.71
886.59	4997.33
887.33	4885.81
888.07	4779.48
888.81	4674.24
889.55	4571.76
890.29	4467.43
891.03	4361.71
891.76	4258.90
892.50	4158.29
893.24	4062.24
893.98	3971.57
894.72	3883.86
895.46	3798.76
896.19	3714.19
896.93	3633.67
897.67	3555.43
898.41	3481.95
899.15	3413.00
899.88	3348.48
900.62	3288.05
901.36	3231.90
902.10	3178.43
902.83	3127.90
903.57	3080.90
904.31	3037.48
905.05	2997.24
905.78	2961.14
906.52	2927.76
907.26	2896.57
907.99	2868.33
908.73	2842.14
909.47	2817.62
910.20	2795.95
910.94	2776.43
911.68	2759.52
912.41	2744.29
913.15	2730.76
913.88	2717.48
914.62	2705.67
915.36	2695.19
916.09	2685.86
916.83	2677.48
917.56	2670.14
918.30	2663.71
919.04	2657.52
919.77	2652.24
920.51	2647.05
921.24	2642.38
921.98	2638.24
922.71	2634.71
923.45	2631.48
924.18	2628.38
924.92	2625.62
925.65	2622.86
926.39	2620.33
927.12	2617.81
927.86	2615.57
928.59	2613.43
929.33	2611.52
930.06	2609.52
930.80	2607.52
931.53	2605.81
932.27	2604.33
933.00	2602.57
933.73	2601.00
934.47	2599.76
935.20	2598.38
935.94	2597.24
936.67	2596.14
937.40	2595.00
938.14	2593.81
938.87	2592.52
939.60	2591.57
940.34	2590.71
941.07	2589.90
941.80	2589.10
942.54	2588.14
943.27	2587.33
944.00	2586.43
944.74	2585.95
945.47	2585.43
946.20	2584.95
946.93	2584.29
947.67	2583.76
948.40	2583.38
949.13	2583.05
949.86	2582.67
950.60	2582.24
951.33	2581.81
952.06	2581.43
952.79	2581.19
953.53	2580.81
954.26	2580.52
954.99	2580.33
955.72	2580.14
956.45	2579.90
957.18	2579.67
957.92	2579.71
958.65	2579.43
959.38	2579.29
960.11	2579.00
960.84	2578.57
961.57	2577.95
962.30	2577.33
963.04	2576.57
963.77	2575.81
964.50	2574.95
965.23	2573.95
965.96	2572.90
966.69	2571.86
967.42	2570.81
968.15	2569.86
968.88	2568.86
969.61	2567.86
970.34	2566.90
971.07	2565.81
971.80	2564.95
972.53	2564.05
973.26	2563.24
973.99	2562.67
974.72	2562.19
975.45	2561.71
976.18	2561.57
976.91	2561.81
977.64	2560.62
978.37	2559.62
979.10	2558.81
979.83	2558.10
980.56	2557.57
981.29	2557.10
982.01	2556.81
982.74	2556.48
983.47	2556.10
984.20	2555.76
984.93	2556.48
985.66	2557.57
986.39	2558.86
987.12	2560.33
987.84	2562.00
988.57	2563.76
989.30	2562.86
990.03	2561.81
990.76	2560.76
991.49	2559.57
992.21	2572.00
992.94	2582.00
993.67	2585.00
994.40	2591.00
995.12	2594.00
995.85	2599.00
996.58	2543.00
997.31	2543.00
998.03	2543.00
998.76	2543.00
>>>>>End Processed Spectral Data<<<<<
